# Format: McCode with text headers
# URL: http://www.mccode.org
# Creator: McStas 2.5 - Dec. 12, 2018
# Instrument: H3-3B_SESANS.instr
# Ncount: 1666666
# Trace: no
# Gravitation: no
# Seed: 1567538957
# Directory: /Users/peterkonik/JOB/git_repos/PIK_neutron_guide_system/main/really_last_one/H3-3B_SESANS_20190903_214529
# Nodes: 6
# Param: guide_start_width=0.06
# Param: guide_start_height=0.2
# Param: source_lambda_min=0.1
# Param: source_lambda_max=20
# Param: cold_regime=1
# Date: Tue Sep  3 21:45:49 2019 (1567536349)
# type: array_1d(100)
# Source: H3_3B (H3-3B_SESANS.instr)
# component: Monlam
# position: 0.587264 -0.085 39.8139
# title: Wavelength [Angs] monitor
# Ncount: 9999996
# filename: H3-3B_SESANS.lam
# statistics: X0=6.65006; dX=3.45264;
# signal: Min=0; Max=1.79351e+08; Mean=5.33655e+07;
# values: 5.33655e+09 1.86464e+07 1.1093e+06
# xvar: L
# yvar: (I,I_err)
# xlabel: Wavelength [Angs]
# ylabel: Intensity [n/s/cm2/bin]
# xlimits: 0 20
# variables: L I I_err N
0.1 0 0 0 
0.3 4.384141646e-12 5.062370637e-12 3 
0.5 233.70803 230.8521956 15 
0.7 72617.64006 29510.05387 46 
0.9 1553077.595 298155.8178 158 
1.1 8150242.175 999253.1418 348 
1.3 22078957.72 1933410.24 536 
1.5 33618492.56 2369489.913 695 
1.7 52294663.61 2950337.879 950 
1.9 52856967 2778040.549 1172 
2.1 54217890.16 2657721.602 1453 
2.3 59016006.57 2647854.447 1833 
2.5 64177015.94 2677963.791 2093 
2.7 75284054.78 2868075.106 2508 
2.9 82328458.71 3008840.933 2844 
3.1 99967342.68 3400648.753 3275 
3.3 114369463.8 3712177.769 3665 
3.5 121705018.7 3895929.342 4096 
3.7 133571109.1 4055068.531 4673 
3.9 151144416.5 4277216.33 5201 
4.1 161181068.1 4366503.727 5619 
4.3 166847354.6 4359309.382 6179 
4.5 173598903.1 4327877.586 6799 
4.7 179350563.3 4270390.324 7385 
4.9 171979711.8 4045207.772 7835 
5.1 172671253 3911492.422 8338 
5.3 163880967.6 3620432.693 8709 
5.5 158040332.2 3426580.074 9078 
5.7 156639123.8 3250842.186 9465 
5.9 142496854.1 2931593.42 9577 
6.1 143032043.7 2807283.156 9899 
6.3 134186983.6 2595346.133 10166 
6.5 124790509.9 2387964.89 10224 
6.7 119114726.4 2226192.516 10361 
6.9 114504383 2077828.317 10327 
7.1 110745255.7 1948579.056 10618 
7.3 101032898.2 1766586.874 10729 
7.5 97855321.02 1659436.893 10946 
7.7 93838922.31 1547665.117 11106 
7.9 86084433.66 1415638.909 11158 
8.1 80389003.46 1305103.23 10943 
8.3 75771741.52 1211127.634 11120 
8.5 71717734.71 1124625.127 11344 
8.7 67984305.39 1045698.111 11703 
8.9 63506519.35 963464.2596 11773 
9.1 60665392.76 902020.5701 11973 
9.3 56716415.23 835416.0283 12357 
9.5 53491946.05 777301.5611 12672 
9.7 50571647.53 719760.6872 12899 
9.9 48205168.56 674068.6976 13578 
10.1 45735754.75 628776.4675 13926 
10.3 42154636.73 580559.8128 14080 
10.5 40342910.97 544573.2962 14548 
10.7 38421509.03 510961.408 14928 
10.9 36025200.58 476593.8414 14996 
11.1 33716164.17 442515.275 15137 
11.3 32297727.44 415575.2038 15342 
11.5 30505295.95 388580.6526 15516 
11.7 28847972.68 364003.0494 15660 
11.9 26723847.47 338130.3531 15437 
12.1 26435028.12 323157.9765 15732 
12.3 24358315.44 299848.1414 15515 
12.5 23009331.38 280111.5355 15391 
12.7 21860137.31 264139.654 15458 
12.9 21267361.09 251895.4805 15698 
13.1 19828183.49 234261.6193 15441 
13.3 18668911.69 219620.1337 15439 
13.5 17948499.56 208122.2042 15612 
13.7 16807000.94 195061.0357 15391 
13.9 16231548.88 184972.0313 15520 
14.1 15033929.1 171848.432 15489 
14.3 14542218.53 164316.9734 15705 
14.5 13852147.88 155062.7171 15608 
14.7 13387195.42 148228.3748 15635 
14.9 12593172.67 139178.0229 15653 
15.1 11672087.23 129554.3546 15261 
15.3 11222841.69 123601.3767 15442 
15.5 10746947.32 117340.9128 15317 
15.7 10161811.92 110871.1347 15506 
15.9 9752053.082 105234.7231 15371 
16.1 9308222.412 99871.5801 15454 
16.3 8957714.824 95205.20566 15446 
16.5 8392538.726 89578.62358 15363 
16.7 8073310.12 85293.21633 15545 
16.9 7708178.952 81067.82495 15411 
17.1 7378352.09 77206.93308 15437 
17.3 6959924.275 72847.00726 15372 
17.5 6732176.057 69943.62822 15410 
17.7 6509009.223 67083.94548 15462 
17.9 6173279.312 63570.37266 15359 
18.1 5918050.164 60595.56054 15359 
18.3 5624218.023 57644.11445 15435 
18.5 5436599.186 55193.69421 15465 
18.7 5177792.067 52553.47181 15471 
18.9 4935558.794 50031.51622 15588 
19.1 4714990.133 47648.61281 15335 
19.3 4534461.783 45608.13076 15578 
19.5 4348407.19 43622.38201 15529 
19.7 4193620.578 41790.77445 15551 
19.9 4021667.652 39999.78935 15533 
