# Format: McCode with text headers
# URL: http://www.mccode.org
# Creator: McStas 2.5 - Dec. 12, 2018
# Instrument: H3-0_DEDM.instr
# Ncount: 166666
# Trace: no
# Gravitation: no
# Seed: 1567537979
# Directory: /Users/peterkonik/JOB/git_repos/PIK_neutron_guide_system/main/really_last_one/H3-0_DEDM_20190903_213214
# Nodes: 6
# Param: guide_start_width=0.03
# Param: guide_start_height=0.1
# Param: source_lambda_min=0.1
# Param: source_lambda_max=20
# Param: cold_regime=1
# Date: Tue Sep  3 21:32:22 2019 (1567535542)
# type: array_1d(100)
# Source: H3_0 (H3-0_DEDM.instr)
# component: Monlam
# position: -0.371547 0 11.3101
# title: Wavelength [Angs] monitor
# Ncount: 999996
# filename: H3-0_DEDM.lam
# statistics: X0=7.69585; dX=3.34694;
# signal: Min=0; Max=2.72561e+08; Mean=8.00312e+07;
# values: 8.00312e+09 2.63313e+07 708361
# xvar: L
# yvar: (I,I_err)
# xlabel: Wavelength [Angs]
# ylabel: Intensity [n/s/cm2/bin]
# xlimits: 0 20
# variables: L I I_err N
0.1 0 0 0 
0.3 0 0 0 
0.5 0 0 0 
0.7 1.808543933e-25 1.808543933e-25 1 
0.9 0.1512908408 0.1657180046 5 
1.1 202433.3139 155269.4431 7 
1.3 401932.2473 274071.2835 31 
1.5 798074.1303 394179.1187 55 
1.7 1801593.401 586211.7999 106 
1.9 3227446.405 765157.8444 161 
2.1 7022445.278 1129260.148 272 
2.3 9109839.608 1200602.38 400 
2.5 15340442.27 1593395 584 
2.7 22212614.98 1876135.723 846 
2.9 28511661.87 2219729.793 1078 
3.1 50611281.6 2997775.266 1442 
3.3 64590860.32 3500677.878 1782 
3.5 90371668.36 4226617.087 2195 
3.7 115105982.8 4853869.933 2321 
3.9 146252544.8 5425807.807 2633 
4.1 167221164.6 5826349.884 2921 
4.3 204207235 6285055.966 3454 
4.5 233674394.4 6616961.072 3929 
4.7 236847388.1 6507309.528 4068 
4.9 258859066 6605174.886 4294 
5.1 270470398.9 6520383.425 4607 
5.3 272560874.6 6309945.637 4871 
5.5 270392962.5 6041817.93 5171 
5.7 264046155 5739766.968 5474 
5.9 256293197 5408597.321 5768 
6.1 249851760.4 5092768.006 5936 
6.3 238045256.3 4755576.126 6098 
6.5 223781668.1 4376384.85 6233 
6.7 220211497.9 4135738.764 6480 
6.9 212988843.3 3883552.787 6631 
7.1 207294991.5 3658420.433 6851 
7.3 200118168.4 3430652.507 7188 
7.5 189879919.5 3184055.366 7341 
7.7 180125929.5 2963465.372 7653 
7.9 175533489.2 2786078.203 8043 
8.1 159618977.9 2550213.742 7998 
8.3 151004414.4 2372543.095 8081 
8.5 145418012.5 2230602.163 8304 
8.7 137126804.1 2072761.68 8335 
8.9 129771285.5 1927671.858 8613 
9.1 118131129.1 1757168.929 8508 
9.3 117581507.8 1676991.912 8802 
9.5 110041720.6 1556867.104 8930 
9.7 103059725.1 1449368.196 8928 
9.9 95997477.9 1339675.966 8928 
10.1 92693308.44 1267064.516 9081 
10.3 85705205.53 1167050.167 9163 
10.5 82140030.75 1100241.169 9275 
10.7 77175316.55 1023886.351 9296 
10.9 74526937.63 969255.5713 9536 
11.1 70829555.99 910298.4488 9711 
11.3 66638108.57 850439.8381 9680 
11.5 62608102.81 793440.7858 9713 
11.7 59082560.53 742806.5801 9797 
11.9 55759084.88 695223.6857 9707 
12.1 52886344.01 653017.7286 9899 
12.3 50571804.56 616761.9171 9928 
12.5 46708299.32 571148.5178 9786 
12.7 45570067.4 544504.9179 10106 
12.9 41897830.94 504630.6291 9817 
13.1 41613231.75 487445.8064 10183 
13.3 38547911.91 451824.1968 10075 
13.5 36297206.83 424494.0191 9947 
13.7 34567303.45 401209.503 10072 
13.9 32870859.43 378321.492 10056 
14.1 30816294.91 355432.7381 9897 
14.3 29722731.82 338062.4775 10122 
14.5 28646385.09 321770.5347 10141 
14.7 26826868.63 302097.8497 10033 
14.9 25335074.98 284958.6074 10073 
15.1 24189195.73 269590.1567 10116 
15.3 22924486.26 254527.3348 10031 
15.5 21553673.46 239939.0144 9962 
15.7 20435320.37 226652.7932 9873 
15.9 19856181.98 217229.2105 10124 
16.1 18582563.87 204213.6673 9966 
16.3 17750717.38 194006.8168 9946 
16.5 17018646.4 184513.212 10090 
16.7 16323326.66 175823.1583 10126 
16.9 15240264.6 165550.2045 9842 
17.1 14454757.72 156789.6454 9895 
17.3 14038618.93 150421.7923 10066 
17.5 13486398.68 143336.0147 10138 
17.7 13068655.57 137652.8487 10195 
17.9 12273233.26 129949.5398 10091 
18.1 11750334.88 123831.3269 10110 
18.3 11016775.72 116881.5577 9918 
18.5 10597070.74 111674.089 9981 
18.7 10175316.91 106666.3568 10053 
18.9 9864402.829 102505.9521 10188 
19.1 9159350.415 96381.26338 9854 
19.3 8949578.545 92957.51664 10132 
19.5 8679847.269 89377.91535 10168 
19.7 8232949.497 84933.27336 10104 
19.9 7741894.033 80410.31699 9941 
