# Format: McCode with text headers
# URL: http://www.mccode.org
# Creator: McStas 2.5 - Dec. 12, 2018
# Instrument: H3-4A_SONATA.instr
# Ncount: 1000000
# Trace: no
# Gravitation: no
# Seed: 1567693453
# Directory: /home/nerde/JOB/github/PIK_neutron_guide_system/main/instruments/elliptical_noses_calculation/H3-4A_SONATA_20190905_140945
# Param: nose_length=10.08
# Param: linh=8.16
# Param: louth=0.02
# Param: linw=0
# Param: loutw=0
# Param: sample_width=0.03
# Param: sample_height=0.01
# Param: sample_dist=0.4
# Param: guide_start_width=0.062
# Param: guide_start_height=0.15
# Param: source_lambda_min=2
# Param: source_lambda_max=20
# Param: cold_regime=1
# Date: Thu Sep  5 14:09:59 2019 (1567681799)
# type: array_1d(100)
# Source: H3_4A (H3-4A_SONATA.instr)
# component: Monlam
# position: -1.28415 0 62.2033
# title: Wavelength [Angs] monitor
# Ncount: 1000000
# filename: SONATA.lam
# statistics: X0=5.77755; dX=2.8565;
# signal: Min=3.70042e+06; Max=7.74147e+08; Mean=1.72867e+08;
# values: 1.72867e+10 5.4328e+08 5254
# xvar: L
# yvar: (I,I_err)
# xlabel: Wavelength [Angs]
# ylabel: Intensity [n/s/bin]
# xlimits: 2 20
# variables: L I I_err N
2.09 422928821.7 109132801.8 28 
2.27 381267796.7 92641523.54 29 
2.45 354908290.5 92554217.92 24 
2.63 360784235.3 95684575.98 29 
2.81 515308564.3 113113410.8 35 
2.99 344574278.7 89344159.67 32 
3.17 306128555.4 86921135.47 29 
3.35 681030445 140120883 45 
3.53 382510277.5 101606832.4 34 
3.71 451373307.9 114530417.7 33 
3.89 774146559.7 147972236.7 45 
4.07 744198787.4 145259599.2 40 
4.25 422955799.2 102844183.6 40 
4.43 504843248.2 114659130.6 37 
4.61 589565907.7 117715914.2 46 
4.79 348477153.4 87314419.04 41 
4.97 637919717.9 119500700.5 44 
5.15 531178149.9 101061571.7 50 
5.33 540947761.2 97872553.47 53 
5.51 530634349.8 96435911.66 57 
5.69 475802822.3 89041887.81 58 
5.87 436511030.5 80707531.07 53 
6.05 494032070.5 82661772.75 62 
6.23 442863291.6 74249898.83 58 
6.41 472690521.7 75058558.02 65 
6.59 375175518.1 61569614.07 70 
6.77 296818163.1 53792095.63 48 
6.95 280421651.4 49640097.81 61 
7.13 221682817.2 40978444.43 51 
7.31 339175033 50578462.89 65 
7.49 250312467.8 42406229.05 55 
7.67 187697275.2 33931203.24 48 
7.85 215495228.6 34736329.27 60 
8.03 131277979.5 26281695.83 48 
8.21 181879791.8 29819989.1 54 
8.39 191954383.1 29569047.21 67 
8.57 180395857.2 27356981.18 60 
8.75 132024636.3 22115758.24 56 
8.93 156395039.9 23584238.34 62 
9.11 110661644.9 18577888.27 51 
9.29 125638633.9 19157267.78 59 
9.47 124940950.5 18754312.63 55 
9.65 95453594.83 15492671.82 51 
9.83 92282646.49 14680109.22 58 
10.01 96953930.53 14494176.94 57 
10.19 77795795.01 12610181.56 50 
10.37 86060417.23 12718452.87 60 
10.55 59387801.06 10015517.06 49 
10.73 58310717.43 9749608.182 48 
10.91 87279806.91 11513253.4 77 
11.09 42535383.6 7719403.381 41 
11.27 66082605.58 9206987.5 63 
11.45 48731658.59 7681021.517 54 
11.63 48320634.99 7299801.972 57 
11.81 45556539.24 7012708.332 54 
11.99 38684368.78 6103384.095 53 
12.17 38503418.69 5973948.62 54 
12.35 37341840.33 5632660.094 55 
12.53 33664194.48 5158790.23 54 
12.71 42674764.31 5614595.921 69 
12.89 29583472.4 4562661.106 50 
13.07 33387297.65 4789304.91 57 
13.25 19381062.51 3440403.1 37 
13.43 21699351.46 3541225.729 46 
13.61 26861331.15 3856351.72 56 
13.79 23707066.92 3465012.097 57 
13.97 26713908.38 3648823.69 61 
14.15 19455862.36 3002339.902 52 
14.33 17566944.31 2772508.311 53 
14.51 19737282.11 2841361.013 57 
14.69 18754205.62 2734865.625 57 
14.87 21202149.34 2755997.424 67 
15.05 15189800.11 2295068.64 51 
15.23 16625440.9 2356475.97 52 
15.41 17550470.8 2329620.061 63 
15.59 14950015.15 2074653.891 58 
15.77 13655400.85 1960343.517 55 
15.95 12446032.46 1801533.254 53 
16.13 13430793.79 1817123.173 65 
16.31 11332804.98 1626970.124 55 
16.49 9990190.615 1529538.701 47 
16.67 9645246.835 1433533.166 49 
16.85 11233684.63 1504337.104 61 
17.03 9614226.917 1368961.105 52 
17.21 7269056.942 1145207.184 48 
17.39 8680173.48 1239686.541 54 
17.57 8824080.51 1212436.314 60 
17.75 8479841.738 1123892.681 61 
17.93 7773128.647 1090173.916 56 
18.11 8086758.989 1082865.211 60 
18.29 8786885.853 1102904.861 67 
18.47 6596787.518 925962.893 56 
18.65 5674452.162 837700.9103 48 
18.83 6662586.209 880146.7714 61 
19.01 6390971.742 851132.3953 58 
19.19 5388119.608 763056.1978 53 
19.37 3700417.211 610207.3566 43 
19.55 6513272.423 799864.284 71 
19.73 4558217.336 643820.2064 54 
19.91 4407043.52 631269.639 52 
