# Format: McCode with text headers
# URL: http://www.mccode.org
# Creator: McStas 2.4.1 - Jun. 26, 2017
# Instrument: H3-0_DEDM.instr
# Ncount: 1000000
# Trace: no
# Gravitation: no
# Seed: 1541852149
# Directory: d:\JOB\github\PIK_neutron_guide_system\main\H3-0_DEDM_20181110_141523/4
# Param: R_curv=210
# Date: Sat Nov 10 14:16:07 2018 (1541848567)
# type: array_1d(100)
# Source: H3_0 (H3-0_DEDM.instr)
# component: Monlam
# position: 0.301124 0 13.7297
# title: Wavelength [Angs] monitor
# Ncount: 1000000
# filename: H3-0_DEDM.L
# statistics: X0=7.18268; dX=3.33696;
# signal: Min=0; Max=5.5702e+008; Mean=1.6215e+008;
# values: 1.6215e+010 5.0399e+007 750949
# xvar: L
# yvar: (I,I_err)
# xlabel: Wavelength [Angs]
# ylabel: Intensity [n/s/cm2/bin]
# xlimits: 0 20
# variables: L I I_err N
0.1 0 0 0 
0.3 0 0 0 
0.5 0 0 0 
0.7 8.128045169e-009 8.128045169e-009 1 
0.9 87170.18663 87121.59757 14 
1.1 1466075.485 618408.0729 33 
1.3 5051389.853 1304096.367 69 
1.5 9356369.906 1831996.981 166 
1.7 13681524.14 2139829.223 285 
1.9 25546782.23 2853242.849 484 
2.1 39659652.92 3485171.99 650 
2.3 54921574.24 3887533.704 975 
2.5 68917627.38 4267211.351 1184 
2.7 111358683.9 5509207.358 1555 
2.9 155273471 6623084.356 1811 
3.1 214355294.6 7983207.746 2115 
3.3 253506841.5 8944833.408 2387 
3.5 333277475.2 10448431.31 2599 
3.7 390808429.3 11464173.51 2834 
3.9 446777323.5 12209035.6 3322 
4.1 466723187.6 12339132.84 3609 
4.3 503626740.5 12570785.59 4029 
4.5 509597630.4 12298460.31 4455 
4.7 557019622.3 12490915.24 4949 
4.9 545405531.4 12049881.08 5218 
5.1 542864366.9 11519025.33 5620 
5.3 526622170.5 10940801.47 5849 
5.5 510560828.4 10327331.41 6158 
5.7 493073479.4 9721899.223 6280 
5.9 486625127.7 9271890.901 6922 
6.1 474612412.7 8769483.744 7156 
6.3 446097181.5 8089673.557 7311 
6.5 429484532.8 7569385.332 7560 
6.7 406493872 6984835.629 7695 
6.9 383216187.6 6465273.87 7881 
7.1 374347336.7 6077642.73 8193 
7.3 360998294.1 5706151.615 8506 
7.5 341262022.9 5283030.086 8701 
7.7 322260718.1 4882106.703 8841 
7.9 301547412.7 4502201.337 8831 
8.1 285526288 4185941.016 8919 
8.3 276997197 3944688.753 9200 
8.5 257148664.8 3623731.325 9303 
8.7 243382294.3 3368344.469 9386 
8.9 232950264.6 3158058.502 9515 
9.1 226720736.4 2994905.975 9802 
9.3 204495625.7 2711067.756 9696 
9.5 194314558.6 2538104.146 9697 
9.7 185262444.3 2380342.914 9796 
9.9 173905404.4 2207759.043 9867 
10.1 162072295.9 2040957.872 9895 
10.3 152272159.5 1900984.703 9887 
10.5 146842481.3 1796569.472 9995 
10.7 135738511 1662269.875 9866 
10.9 128653282.3 1552945.269 10030 
11.1 124776713.3 1475842.92 10300 
11.3 115551640.4 1366995.045 10132 
11.5 108223821 1275706.921 10058 
11.7 103037841.5 1200994.46 10090 
11.9 96079750.54 1118596.209 9940 
12.1 91862597.72 1057575.067 10082 
12.3 85187911.73 982885.6742 9922 
12.5 83187748.73 939345.2616 10132 
12.7 76009775.99 865867.2339 9952 
12.9 72451444.65 816526.5333 9971 
13.1 69123150.31 772429.3821 10018 
13.3 65087971.97 723676.5233 10026 
13.5 62779695.87 688751.3713 10121 
13.7 58387796.76 643743.4409 10000 
13.9 57412500.27 618571.9665 10335 
14.1 52111645.89 571180.515 9906 
14.3 49791348.73 541124.2417 9957 
14.5 46926465.8 509842.6642 9945 
14.7 44657654.14 483855.7129 9883 
14.9 42046438.77 455678.7962 9805 
15.1 40828011.63 434846.1417 10158 
15.3 38506042.98 410913.9436 10025 
15.5 37148017.3 392106.3128 10192 
15.7 35618110.51 372936.5214 10273 
15.9 33177368.95 350813.0302 10038 
16.1 31213792.92 329689.3354 10036 
16.3 29603644.85 313083.2031 9937 
16.5 28155417.65 297238.3804 9905 
16.7 27488855.54 285929.2095 10174 
16.9 25917441.2 270292.7599 10089 
17.1 24551430.14 256037.6773 10067 
17.3 23141311.13 242084.0597 9947 
17.5 22638530.14 233483.2192 10199 
17.7 21319952.8 220735.5778 10120 
17.9 20281546.4 210777.6258 9952 
18.1 19410866.85 200667.2585 10045 
18.3 18433060.37 190481.8066 10044 
18.5 17478564.72 180913.8149 10001 
18.7 16648294.83 172454.879 9931 
18.9 16157210.47 165641.6216 10144 
19.1 15206536.25 157137.4327 9944 
19.3 14711381.06 150960.2264 10072 
19.5 13907998.42 143105.936 10011 
19.7 13285386.88 136688.8478 9971 
19.9 12727771.22 130705.6481 9997 
