# Format: McCode with text headers
# URL: http://www.mccode.org
# Creator: McStas 2.4.1 - Jun. 26, 2017
# Instrument: H3-0_DEDM.instr
# Ncount: 1000000
# Trace: no
# Gravitation: no
# Seed: 1541858858
# Directory: d:\JOB\github\PIK_neutron_guide_system\main\H3-0_DEDM_20181110_141523/2
# Param: R_curv=110
# Date: Sat Nov 10 14:15:48 2018 (1541848548)
# type: array_1d(100)
# Source: H3_0 (H3-0_DEDM.instr)
# component: Monlam
# position: 0.574509 0 13.7155
# title: Wavelength [Angs] monitor
# Ncount: 1000000
# filename: H3-0_DEDM.L
# statistics: X0=7.7704; dX=3.31752;
# signal: Min=0; Max=4.5073e+008; Mean=1.29896e+008;
# values: 1.29896e+010 3.89885e+007 739185
# xvar: L
# yvar: (I,I_err)
# xlabel: Wavelength [Angs]
# ylabel: Intensity [n/s/cm2/bin]
# xlimits: 0 20
# variables: L I I_err N
0.1 0 0 0 
0.3 0 0 0 
0.5 0 0 0 
0.7 1.45087071e-049 1.45087071e-049 1 
0.9 3.994089864e-026 4.465527646e-026 4 
1.1 9.078451764e-007 9.944853875e-007 5 
1.3 11118.72807 11228.90422 15 
1.5 1344552.753 703817.6817 41 
1.7 1602058.159 655787.7942 87 
1.9 5069667.484 1041371.198 179 
2.1 8738134.66 1495714.014 243 
2.3 14970727.88 1773449.344 407 
2.5 18572038.1 1937046.632 626 
2.7 26471070.38 2340732.223 873 
2.9 48026662.35 3310788.246 1245 
3.1 62825092.9 3885192.604 1568 
3.3 95451367.3 4956438.849 2036 
3.5 122626862.8 5737586.164 2245 
3.7 179415913.3 7011856.13 2654 
3.9 210997652.6 7627998.086 2884 
4.1 257976586.5 8391687.598 3251 
4.3 304889775.6 8985508.967 3811 
4.5 347804360.3 9390558.513 4337 
4.7 379656959.6 9606453.855 4589 
4.9 391348590.6 9488776.873 4864 
5.1 442303608.6 9811531.113 5177 
5.3 434729621.8 9364708.249 5612 
5.5 450729682.5 9223440.719 6077 
5.7 426919952.9 8595613.498 6306 
5.9 409445600.5 8074052.979 6477 
6.1 412171409.8 7783561.106 6719 
6.3 390230034.6 7210638.923 6958 
6.5 386212012.5 6893904.362 7090 
6.7 373324474.6 6444647.401 7267 
6.9 350199691.5 5949044.772 7450 
7.1 338031287.5 5575379.499 7677 
7.3 326412862.7 5217623.956 8109 
7.5 314032670.4 4907740.67 8306 
7.7 305670078.3 4638149.028 8697 
7.9 289431441.3 4301166.126 8876 
8.1 269283078.1 3977119.192 8851 
8.3 257543417 3715707.885 9076 
8.5 250492394.7 3510156.411 9419 
8.7 229325829.1 3203996.812 9449 
8.9 216371352.1 2982817.91 9493 
9.1 204424353.8 2783220.897 9555 
9.3 196013253.3 2614274.346 9692 
9.5 183339658.9 2417575.227 9679 
9.7 175584902.6 2280399.843 9878 
9.9 164729240.1 2119986.894 9849 
10.1 153310056.2 1956557.452 9919 
10.3 147290046.5 1852749.343 9954 
10.5 140060470.3 1738799.844 10027 
10.7 130625063.5 1613604.552 10073 
10.9 124069132.5 1519282.941 10019 
11.1 117759672.6 1424019.127 10190 
11.3 109414619.8 1324757.777 10124 
11.5 103369860.6 1241229.781 10043 
11.7 98771175.18 1171728.938 10114 
11.9 91387955.13 1086058.908 9944 
12.1 88068574.48 1028276.043 10234 
12.3 83538941.67 965709.1175 10171 
12.5 77327478.29 895685.2922 10004 
12.7 72844409.55 840720.231 9908 
12.9 69132513.79 793423.9315 9884 
13.1 65815329.9 746712.7389 10003 
13.3 62960768.61 708441.4402 9999 
13.5 61081114.28 676731.0457 10200 
13.7 55871331.73 624457.079 9988 
13.9 53287723.36 590967.6024 9973 
14.1 49213116.65 551344.6799 9731 
14.3 48544111.99 530927.0668 10076 
14.5 44997409.83 495637.1073 9856 
14.7 43808838.48 474800.8301 10073 
14.9 41763775.18 449716.6766 10136 
15.1 39653908.97 426186.6526 10103 
15.3 37395052.65 401809.1998 10039 
15.5 34853332.09 376351.6902 9914 
15.7 33711258.6 360492.7155 10002 
15.9 32481084.93 343495.6233 10173 
16.1 30103069.79 322108.9021 9876 
16.3 29114469.06 308548.3901 10026 
16.5 27407596.47 290648.5306 9972 
16.7 26233109.46 276859.579 10042 
16.9 25244309.11 264519.7095 10108 
17.1 24151008.66 251403.1325 10233 
17.3 22692314.88 238297.5925 9979 
17.5 21662644.74 227001.3616 9986 
17.7 20561790.91 215196.6097 9990 
17.9 20038387.39 207495.43 10140 
18.1 18895284.77 196585.6346 10013 
18.3 18107326.71 187542.3059 10093 
18.5 17202779.71 178427.7926 10031 
18.7 16486098.48 170787.5942 10002 
18.9 15735284.16 162599.9796 10040 
19.1 15117293.1 155717.0727 10090 
19.3 14325223.88 148047.185 9982 
19.5 13644952.38 141128.4549 9936 
19.7 13084099.61 135011.5389 9960 
19.9 12662309.2 129689.7292 10108 
