# Format: McCode with text headers
# URL: http://www.mccode.org
# Creator: McStas 2.5 - Dec. 12, 2018
# Instrument: H3-4A_SONATA.instr
# Ncount: 10000000
# Trace: no
# Gravitation: no
# Seed: 1567693664
# Directory: /home/nerde/JOB/github/PIK_neutron_guide_system/main/instruments/elliptical_noses_calculation/H3-4A_SONATA_20190905_141142
# Param: nose_length=10.08
# Param: linh=8.16
# Param: louth=0.02
# Param: linw=0
# Param: loutw=0
# Param: sample_width=0.03
# Param: sample_height=0.01
# Param: sample_dist=0.4
# Param: guide_start_width=0.062
# Param: guide_start_height=0.15
# Param: source_lambda_min=2
# Param: source_lambda_max=20
# Param: cold_regime=1
# Date: Thu Sep  5 14:14:17 2019 (1567682057)
# type: array_1d(100)
# Source: H3_4A (H3-4A_SONATA.instr)
# component: Monlam
# position: -1.28415 0 62.2033
# title: Wavelength [Angs] monitor
# Ncount: 10000000
# filename: SONATA.lam
# statistics: X0=5.77753; dX=2.8396;
# signal: Min=4.4584e+06; Max=6.63965e+08; Mean=1.71679e+08;
# values: 1.71679e+10 1.73342e+08 52433
# xvar: L
# yvar: (I,I_err)
# xlabel: Wavelength [Angs]
# ylabel: Intensity [n/s/bin]
# xlimits: 2 20
# variables: L I I_err N
2.09 251053779.3 24815879.7 217 
2.27 314744586.7 27665870.72 265 
2.45 313105012.5 27055103.75 258 
2.63 322834254.7 27026979.25 282 
2.81 345575688.3 28737849.46 291 
2.99 440973633.4 33003383.55 343 
3.17 511648091.2 36845358.04 361 
3.35 509188373.6 36862588.99 375 
3.53 622314117.8 41838443.84 382 
3.71 600446602.7 41470563.7 396 
3.89 601538328.9 41416499.76 395 
4.07 605786791 40975556.75 413 
4.25 663964816.1 42497113.03 430 
4.43 583844354.1 38650856.35 445 
4.61 657564925.7 40675561.05 469 
4.79 569008001.3 36187256.74 469 
4.97 555780846.9 34950199.72 483 
5.15 470285460.2 30875467.58 449 
5.33 582205208.4 33021337.21 546 
5.51 532038514.6 30234039.82 526 
5.69 477492718.8 28062052.97 492 
5.87 452184222.5 25898979.04 520 
6.05 348427983.9 21564060.96 481 
6.23 442526669.8 23485235.75 605 
6.41 353214201.1 20032671.45 549 
6.59 313508397 18211733.85 496 
6.77 339408525.2 18039027.12 571 
6.95 297318443 16164253.7 554 
7.13 260696648 14579473.46 530 
7.31 257814452.8 13839125.68 536 
7.49 236199695.8 12574053.92 575 
7.67 202453264.9 11229735.82 546 
7.85 202275047.8 10712277.63 546 
8.03 176558508.5 9576186.209 522 
8.21 176244182 9165242.322 561 
8.39 150460216.4 8142274.091 531 
8.57 155182785.4 7897850.909 569 
8.75 133686039.5 7051760.202 530 
8.93 120655672.6 6433477.959 536 
9.11 125699312.7 6336336.199 565 
9.29 115433646.6 5836426.542 548 
9.47 101889704.9 5247289.551 547 
9.65 103622430.1 5102230.911 583 
9.83 95895990.47 4715685.899 577 
10.01 88849017.57 4424544.277 562 
10.19 84081776.77 4098473.164 576 
10.37 83109083.02 3910535.22 594 
10.55 78119433.49 3678525.858 594 
10.73 67954863.92 3274098.911 555 
10.91 65281009.21 3112607.226 561 
11.09 62006304.33 2928828.279 591 
11.27 52974049.34 2605948.581 528 
11.45 49026928.07 2427819.749 527 
11.63 51294777.41 2387674.397 579 
11.81 45905879.8 2189882.331 543 
11.99 44410786.79 2085854.381 566 
12.17 42077853.27 1960938.716 570 
12.35 37978494.52 1789452.708 569 
12.53 36416246.36 1704239.589 574 
12.71 31308211.43 1530766.383 511 
12.89 33873395.88 1543039.082 585 
13.07 29369139.12 1390993.772 549 
13.25 29757379.82 1369203.679 569 
13.43 27463354.68 1270829.334 558 
13.61 25038347.06 1174585.909 552 
13.79 26470145.58 1157588.417 624 
13.97 23200969.58 1057829.549 570 
14.15 20114945.44 957776.1546 526 
14.33 21711873.77 966196.8411 608 
14.51 19370703.2 884882.295 568 
14.69 17503340.44 819767.0265 539 
14.87 17613075.93 797510.2015 570 
15.05 17033127.15 762161.9757 570 
15.23 16185931.67 720997.0402 579 
15.41 14761838.55 673498.6779 557 
15.59 14479716.88 649402.4239 561 
15.77 12425205.4 584465.4361 510 
15.95 12540773.43 571533.9235 545 
16.13 13418011.79 575685.2408 606 
16.31 12450757.23 542163.661 592 
16.49 11231913.57 500830.0042 548 
16.67 10341759.63 466064.2974 550 
16.85 9284482.603 431326.1437 508 
17.03 9803262.128 432360.4655 561 
17.21 9446019.011 415692.3035 574 
17.39 9323820.711 401674.9884 581 
17.57 8730532.512 378418.2462 581 
17.75 8380541.699 363509.0915 578 
17.93 8100312.553 347882.2013 590 
18.11 7098351.426 314820.0089 566 
18.29 7612272.171 321524.629 608 
18.47 6466140.415 289326.8263 545 
18.65 6558120.379 285360.6876 573 
18.83 6034350.491 266659.4291 544 
19.01 5460474.113 249097.3525 524 
19.19 5764078.144 249191.0276 577 
19.37 5460626.227 236658.4374 575 
19.55 5147263.676 224750.4678 562 
19.73 4842269.766 213241.7374 557 
19.91 4458395.771 201104.828 528 
