# Format: McCode with text headers
# URL: http://www.mccode.org
# Creator: McStas 2.5 - Dec. 12, 2018
# Instrument: H3-0_DEDM.instr
# Ncount: 1666666
# Trace: no
# Gravitation: no
# Seed: 1567543205
# Directory: /Users/peterkonik/JOB/git_repos/PIK_neutron_guide_system/main/really_last_one/H3-0_DEDM_20190903_225240
# Nodes: 6
# Param: guide_start_width=0.03
# Param: guide_start_height=0.1
# Param: source_lambda_min=0.1
# Param: source_lambda_max=20
# Param: cold_regime=1
# Date: Tue Sep  3 22:52:51 2019 (1567540371)
# type: array_1d(100)
# Source: H3_0 (H3-0_DEDM.instr)
# component: Mony
# position: -0.371547 0 11.3101
# title: y [m] monitor
# Ncount: 9999996
# filename: H3-0_DEDM.y
# statistics: X0=2.05515e-05; dX=0.0288612;
# signal: Min=0; Max=9.02722e+07; Mean=7.98425e+07;
# values: 7.98425e+09 8.31607e+06 7.08129e+06
# xvar: y
# yvar: (I,I_err)
# xlabel: y [m]
# ylabel: Intensity [n/s/cm2/bin]
# xlimits: -0.055 0.055
# variables: y I I_err N
-0.05445 0 0 0 
-0.05335 0 0 0 
-0.05225 0 0 0 
-0.05115 0 0 0 
-0.05005 40307978.2 585806.3328 35607 
-0.04895 86484485.59 858892.2642 77574 
-0.04785 87272876.01 867733.4528 77640 
-0.04675 87965190.07 876554.2104 77538 
-0.04565 86086094.32 858592.6209 77411 
-0.04455 88241058.2 873609.6403 78203 
-0.04345 88109058.33 871318.5975 78091 
-0.04235 87986364.18 873801.5208 77747 
-0.04125 88210787.36 874158.8321 77844 
-0.04015 88013318.75 873349.2845 77892 
-0.03905 87930751.74 875678.9574 77712 
-0.03795 86969886.59 865170.4299 77455 
-0.03685 87767161.18 878038.2962 77885 
-0.03575 87989418.23 874491.3929 77976 
-0.03465 87421224.44 865886.2447 78145 
-0.03355 89401491.84 884427.3191 77566 
-0.03245 88549216.88 876204.5075 78007 
-0.03135 86876693.02 862512.1659 77143 
-0.03025 88491179.72 878454.8215 78079 
-0.02915 87740418.96 870866.2377 77474 
-0.02805 86825674.59 860761.1927 78165 
-0.02695 86919512.03 866611.0535 77665 
-0.02585 87868777.44 871282.6465 78214 
-0.02475 87942212.56 879052.1993 77804 
-0.02365 88457822.16 875044.7247 77637 
-0.02255 87670745.86 873602.991 77958 
-0.02145 86974015.95 865771.0576 77740 
-0.02035 86432115.51 857243.3903 77807 
-0.01925 87990731.37 873586.8941 77934 
-0.01815 86573792.49 862368.4679 78030 
-0.01705 88695040.23 879529.7117 77955 
-0.01595 86807705.9 859921.6537 78732 
-0.01485 88885127.4 882307.0995 78132 
-0.01375 87396842.26 867547.7401 78384 
-0.01265 88267776.26 875398.3772 77625 
-0.01155 87538462.39 874351.4562 77786 
-0.01045 86911079.67 868230.294 77564 
-0.00935 88403623.61 878730.5565 78301 
-0.00825 90272172.37 888388.921 78226 
-0.00715 87655681.59 870352.0282 77297 
-0.00605 88246319.56 874360.188 78050 
-0.00495 88296507.34 873208.8479 78156 
-0.00385 87167596.23 868169.5107 77985 
-0.00275 88060484.01 870280.8282 78704 
-0.00165 87956739.48 873304.3949 78026 
-0.00055 87995647.44 879254.6899 77833 
0.00055 88225285.39 877969.1836 78142 
0.00165 86673015.25 861102.4668 77639 
0.00275 87910128.74 868354.185 77977 
0.00385 87819240.93 870687.3831 77911 
0.00495 88989856.88 887472.2001 77831 
0.00605 88035675.61 875180.3678 77749 
0.00715 89933654.17 890186.1899 78230 
0.00825 87577527.34 871394.6255 78316 
0.00935 89610657.04 887389.7881 78658 
0.01045 86922775.82 860201.2919 78243 
0.01155 86579329.38 859124.5735 77859 
0.01265 87688109.21 871164.1596 78231 
0.01375 87712552.09 872200.6348 78159 
0.01485 87099481.69 867629.5946 77503 
0.01595 88569803.72 877172.3931 78118 
0.01705 87849035.07 872064.8552 78030 
0.01815 87172431.04 874845.5628 77397 
0.01925 86073865.89 855874.7017 77804 
0.02035 88112137.8 875627.9451 77936 
0.02145 88042421.61 878520.169 77874 
0.02255 87932066.84 869545.4161 77780 
0.02365 87244241.97 864861.0688 78075 
0.02475 89749935.49 886452.5719 78079 
0.02585 88262452.16 878206.4987 77719 
0.02695 87610083.8 871145.4414 77710 
0.02805 87823248.03 872638.9592 77887 
0.02915 88249735.35 873927.4134 77962 
0.03025 89126856.77 885188.019 78161 
0.03135 88025308.15 874303.6723 78005 
0.03245 87637900.26 870996.7393 77830 
0.03355 87759386.15 870284.8202 77735 
0.03465 87604263.17 864050.5738 77931 
0.03575 87316844.8 869151.4125 77750 
0.03685 87212559.36 868562.9292 77827 
0.03795 88170851.63 873126.4327 77530 
0.03905 86652246.9 860990.9136 77622 
0.04015 88522989.61 878346.1334 77896 
0.04125 87461161.64 872724.7218 78030 
0.04235 87234168.54 867818.871 77696 
0.04345 86632684.13 866057.0208 77395 
0.04455 87551323.8 869471.8267 77830 
0.04565 89183387.26 886024.2712 77850 
0.04675 88191167.03 873269.1835 77757 
0.04785 88084079.44 877332.5686 77575 
0.04895 89138148.27 875501.8706 78133 
0.05005 39250725.91 579594.6971 35220 
0.05115 0 0 0 
0.05225 0 0 0 
0.05335 0 0 0 
0.05445 0 0 0 
