# Format: McCode with text headers
# URL: http://www.mccode.org
# Creator: McStas 2.5 - Dec. 12, 2018
# Instrument: H3-0_DEDM.instr
# Ncount: 1000000
# Trace: no
# Gravitation: no
# Seed: 1567156085
# Directory: /Users/peterkonik/JOB/git_repos/PIK_neutron_guide_system/main/really_last_one/H3-0_DEDM_20190829_192748/4
# Param: n=5
# Param: guide_start_width=0.03
# Param: guide_start_height=0.03
# Param: source_lambda_min=0.1
# Param: source_lambda_max=20
# Param: cold_regime=1
# Date: Thu Aug 29 19:28:06 2019 (1567096086)
# type: array_1d(100)
# Source: H3_0 (H3-0_DEDM.instr)
# component: Monlam
# position: 0.371547 0 11.3101
# title: Wavelength [Angs] monitor
# Ncount: 1000000
# filename: H3-0_DEDM.lam
# statistics: X0=7.65114; dX=3.66214;
# signal: Min=0; Max=5.7768e+07; Mean=1.79149e+07;
# values: 1.79149e+09 8.55426e+06 652296
# xvar: L
# yvar: (I,I_err)
# xlabel: Wavelength [Angs]
# ylabel: Intensity [n/s/cm2/bin]
# xlimits: 0 20
# variables: L I I_err N
0.1 0 0 0 
0.3 0 0 0 
0.5 0 0 0 
0.7 0 0 0 
0.9 2.284319189e-31 2.422879819e-31 8 
1.1 3.667756156e-05 3.005687821e-05 19 
1.3 2173.623261 1959.162316 43 
1.5 425959.1928 204432.9744 70 
1.7 558473.8418 230779.3853 197 
1.9 824008.1899 268484.0989 291 
2.1 2934845.445 484818.7388 433 
2.3 3924815.149 563544.9454 596 
2.5 4889632.807 621993.5747 662 
2.7 7179060.944 717254.3725 681 
2.9 13292689.53 978826.9743 841 
3.1 19255212.72 1266771.34 864 
3.3 25926736.06 1509141.017 1056 
3.5 34528714.91 1787669.739 1271 
3.7 39111618.41 1907043.218 1362 
3.9 45721596.18 2062020.438 1487 
4.1 50988970.8 2160560.587 1573 
4.3 50678581.55 2122541.345 1661 
4.5 53782634.91 2144025.091 1721 
4.7 57767966.09 2162561.375 1995 
4.9 56224089.53 2059592.771 2201 
5.1 53493601.36 1932081.939 2594 
5.3 55761316.38 1884182.473 3344 
5.5 55299026.79 1796711.114 3864 
5.7 56460060.81 1738342.838 4537 
5.9 55089706.18 1633333.309 4953 
6.1 50766682.74 1506437.989 5291 
6.3 50790827.95 1435995.98 5495 
6.5 46028353.69 1304661.94 5705 
6.7 44546722.03 1227504.804 5847 
6.9 42484750.13 1149219.509 6171 
7.1 39358282.53 1049877.892 6448 
7.3 37040859.25 971613.6288 6623 
7.5 34868533.33 893915.5297 6850 
7.7 32589737.66 828751.0873 7068 
7.9 28745889.94 738820.0434 7256 
8.1 29253067.99 715592.2975 7407 
8.3 27118800.28 654549.5521 7712 
8.5 24870243.41 597445.3895 7796 
8.7 24219665.26 556466.5952 8096 
8.9 24220887.32 527594.1245 8376 
9.1 22924115.2 487090.3196 8631 
9.3 22437284.87 454653.6118 8682 
9.5 21218336.54 418861.9278 8918 
9.7 20890295.59 395281.0855 9141 
9.9 20320170.94 370754.1205 9137 
10.1 19203950.46 341956.9459 9275 
10.3 18837338.77 326161.418 9346 
10.5 18270411.22 305475.3246 9284 
10.7 16987830.5 280975.9368 9294 
10.9 16024652.67 262352.2118 9309 
11.1 15225662.91 244790.177 9156 
11.3 14805547.68 232426.2843 9283 
11.5 14000039.3 217023.9043 9212 
11.7 13937487.73 208933.9538 9406 
11.9 13189690.84 195502.2609 9434 
12.1 12297196.98 181525.887 9295 
12.3 12084519.48 173815.1101 9333 
12.5 11548260.83 164547.6322 9357 
12.7 11010176.99 154515.3699 9384 
12.9 10601947.07 146895.1069 9364 
13.1 10029170.75 137620.8143 9314 
13.3 9768845.39 131517.182 9388 
13.5 9104492.289 122973.1852 9209 
13.7 8618581.673 115395.3197 9133 
13.9 8529478.599 111456.0779 9412 
14.1 8237640.394 106036.9112 9505 
14.3 7730255.637 99354.93457 9452 
14.5 7201356.739 92991.90197 9116 
14.7 7176099.042 89928.09823 9503 
14.9 6803965.739 84881.505 9496 
15.1 6480238.653 80606.32437 9347 
15.3 6221230.818 76508.00978 9429 
15.5 6060089.237 73418.6913 9474 
15.7 5664339.399 68835.9373 9363 
15.9 5315899.274 64861.46627 9208 
16.1 5273485.439 62682.7785 9484 
16.3 4961052.638 59288.71691 9243 
16.5 4783443.118 56567.64735 9373 
16.7 4609508.377 54064.69779 9385 
16.9 4479916.961 51869.10782 9503 
17.1 4199383.683 48889.22451 9334 
17.3 4013981.31 46506.47696 9283 
17.5 3835933.33 44211.86944 9289 
17.7 3745069.965 42603.84641 9430 
17.9 3537624.418 40254.06102 9350 
18.1 3381800.873 38446.26957 9269 
18.3 3250498.225 36735.27523 9288 
18.5 3101832.637 34972.85393 9302 
18.7 3033641.935 33725.12752 9522 
18.9 2890422.544 32131.27606 9469 
19.1 2751411.586 30592.47608 9358 
19.3 2615356.594 29092.41065 9300 
19.5 2480038.327 27660.01006 9251 
19.7 2418892.802 26676.03396 9358 
19.9 2344587.255 25666.0774 9450 
