# Format: McCode with text headers
# URL: http://www.mccode.org
# Creator: McStas 2.5 - Dec. 12, 2018
# Instrument: H4-1-SONATA-full.instr
# Ncount: 16666666
# Trace: no
# Gravitation: no
# Seed: 1573749435
# Directory: /Users/peterkonik/JOB/git_repos/PIK_neutron_guide_system/main/instruments/H4-1-SONATA-full_20191114_104914
# Nodes: 6
# Date: Thu Nov 14 10:54:40 2019 (1573718080)
# type: array_1d(100)
# Source: H3_4A (H4-1-SONATA-full.instr)
# component: Monlam
# position: -1.50137 0 66.5586
# title: Wavelength [Angs] monitor
# Ncount: 99999996
# filename: H3-4A_SONATA.lam
# statistics: X0=6.26307; dX=3.02513;
# signal: Min=0; Max=1.02234e+09; Mean=2.666e+08;
# values: 2.666e+10 6.0346e+07 1.05786e+06
# xvar: L
# yvar: (I,I_err)
# xlabel: Wavelength [Angs]
# ylabel: Intensity [n/s/bin]
# xlimits: 0 20
# variables: L I I_err N
0.1 0 0 0 
0.3 3.915076147e-14 4.794969433e-14 2 
0.5 423.9984201 441.2980366 12 
0.7 139862.9907 48389.6329 48 
0.9 2183322.017 513566.6748 159 
1.1 19343152.26 2260271.939 314 
1.3 37970163.29 3552971.59 636 
1.5 76489492.31 5136604.663 1322 
1.7 107352238.3 5719176.971 1944 
1.9 149380625.9 6223028.407 2738 
2.1 203980455.3 6645199.814 3558 
2.3 252437611.1 6970649.29 4233 
2.5 311446707.8 7512954.167 5026 
2.7 376143876.5 8184313.622 5578 
2.9 470881060.2 9437990.231 6251 
3.1 558120632.3 10585980.6 6975 
3.3 668223613.4 11913651.77 7519 
3.5 747350080.4 12888932.85 8041 
3.7 826905221.1 13648361.63 8549 
3.9 900612883.8 14358436.02 9043 
4.1 975660601.4 14934294.96 9375 
4.3 1016680255 15071827.27 9828 
4.5 1014413397 14735844.61 10181 
4.7 1022337561 14402435.99 10541 
4.9 982502229.5 13786493.86 10731 
5.1 976951512.9 13348752.97 11039 
5.3 911084190.7 12386380.39 11173 
5.5 892101637.4 11799911.67 11450 
5.7 851291576.8 11119369.03 11787 
5.9 809391836 10369069.63 11932 
6.1 773099231.2 9703983.55 12109 
6.3 721005787.5 8997995.781 12106 
6.5 666822650.9 8248834.267 12262 
6.7 620424377.8 7610197.221 12298 
6.9 588906827.5 7091258.99 12320 
7.1 549453477.6 6550041.164 12459 
7.3 511397920.9 6023331.094 12451 
7.5 469922302.1 5519115.236 12448 
7.7 452816284.4 5185711.599 12870 
7.9 409121224 4701852.691 12499 
8.1 379605637.2 4333246.408 12542 
8.3 363809864.5 4058262.426 12762 
8.5 331805545.9 3705987.488 12564 
8.7 303065640.9 3383120.226 12516 
8.9 287322417.9 3152901.897 12620 
9.1 260724494 2879076.613 12384 
9.3 243884358.7 2668419.367 12329 
9.5 235226740 2510563.98 12751 
9.7 213900151.1 2291527.111 12596 
9.9 201571941.7 2140253.869 12492 
10.1 186993152.8 1972992.253 12536 
10.3 174512118.7 1832627.421 12595 
10.5 163123500 1700934.566 12537 
10.7 154554465.9 1589702.324 12694 
10.9 142122365.7 1466468.608 12542 
11.1 131971135.6 1360050.567 12423 
11.3 123558108.8 1261721.781 12554 
11.5 115161943 1175598.914 12467 
11.7 108058290.2 1097480.622 12434 
11.9 101263871.8 1021363.47 12501 
12.1 94628713.44 952690.5966 12484 
12.3 90363933.59 898337.9936 12598 
12.5 84463107.14 837235.4101 12600 
12.7 79262415.76 783584.0889 12529 
12.9 74782297.8 734764.1701 12657 
13.1 69703302.37 684273.1273 12594 
13.3 65169971.95 640484.1662 12451 
13.5 61241579.78 599795.7729 12468 
13.7 58518603.42 565991.6059 12682 
13.9 54611530.63 529879.0747 12547 
14.1 52309852.96 502721.5641 12662 
14.3 48540674.75 467727.6898 12565 
14.5 46377006.51 443235.7597 12671 
14.7 43233993.01 414146.3432 12594 
14.9 41112886.19 392002.9787 12586 
15.1 39390799.61 372346.385 12688 
15.3 36298051.7 346244.1964 12470 
15.5 34074837.61 325001.8573 12418 
15.7 32792570.22 310160.0287 12597 
15.9 30835859.46 291637.3524 12508 
16.1 29285349.91 276122.866 12577 
16.3 28018255.47 262585.9756 12574 
16.5 26220835.99 246815.218 12479 
16.7 24868502.09 233186.4051 12583 
16.9 23973757.56 222930.654 12726 
17.1 22249277.54 209046.3955 12397 
17.3 21337350.04 198866.27 12607 
17.5 20294023.35 188811.716 12530 
17.7 19395914.43 179849.0208 12637 
17.9 18532876.12 171059.8893 12709 
18.1 17609162.98 162424.4852 12680 
18.3 16614156.77 153459.0948 12633 
18.5 15855001.65 146243.9334 12642 
18.7 14911711.18 138203.1484 12501 
18.9 14204358.78 131686.7912 12488 
19.1 13913694.42 127032.3933 12829 
19.3 13110149.75 120134.5733 12718 
19.5 12367104.61 113864.3608 12589 
19.7 11705385.67 108294.1247 12429 
19.9 11208862.06 103249.6605 12522 
